BEGIN IONS
TITLE=Spectrum2610 scans: 5353,
PEPMASS=710.38513 296037.37500
CHARGE=2+
RTINSECONDS=3574
SCANS=5353
207.080 4.48688
210.138 8.52694
210.892 2.81608
212.075 4.45702
214.127 15.4192
215.174 18.0238
218.853 13.7022
221.138 16.5991
222.738 27.2088
224.326 9.56491
226.186 21.8721
227.201 19.7326
229.049 24.978
229.990 7.55599
231.342 48.7643
232.147 450.411
233.132 57.852
235.092 3.90734
237.271 6.21414
240.060 20.1159
244.280 24.3823
245.791 34.8008
247.087 21.6054
247.809 10.7955
249.118 34.3945
253.083 24.8309
258.084 23.5536
261.220 23.0667
263.081 30.4977
265.177 13.917
267.244 8.52939
268.258 17.529
269.282 2.59813
275.065 14.2495
276.065 27.0925
277.120 31.7992
280.453 11.4253
281.248 2.71709
283.051 4.98623
284.304 23.6275
285.277 20.8625
287.793 2.88391
288.447 23.4775
290.180 24.1417
292.481 10.7607
297.174 18.5382
298.190 27.0667
300.038 6.64057
301.121 81.7275
302.275 6.94399
303.229 19.7514
305.400 5.182
306.131 17.4215
307.067 7.25248
308.346 7.0588
310.598 51.1893
311.337 22.5128
313.136 7.67839
315.163 32.3897
317.057 6.60563
319.330 13.927
322.919 5.80652
327.030 19.4572
328.161 46.3204
329.950 9.37912
331.362 87.9261
332.233 14.8589
333.305 74.9939
334.227 10.7573
338.107 16.9271
339.087 1.98981
341.051 7.87615
342.281 27.4389
343.322 18.5266
344.059 9.32926
345.242 468.638
346.301 110.184
347.158 42.3704
349.326 9.25257
350.458 12.2763
352.865 9.84789
354.269 19.5352
357.537 8.27936
359.227 140.175
360.087 28.925
360.825 16.7369
361.503 2.42387
363.232 23.2083
364.292 2.45896
365.390 8.63982
367.231 10.9096
368.042 11.7982
369.047 8.53081
370.202 27.1982
371.258 4.12441
372.168 13.7451
373.292 22.079
374.196 25.6963
377.084 130.884
381.215 20.7568
382.277 3.03343
383.279 18.2003
385.337 31.2621
386.089 3.38691
387.663 10.4754
388.786 8.53382
390.060 7.37525
390.847 7.68122
392.401 9.33238
393.429 3.90744
394.258 3.16852
395.054 3.90089
398.304 18.3473
399.325 15.8568
400.160 24.1315
401.111 36.2701
401.908 8.21451
403.413 46.5244
404.607 16.262
406.104 12.991
410.245 9.16185
412.361 23.7573
413.073 18.8339
414.116 11.1571
415.213 22.8729
416.639 57.9205
418.212 2.67428
420.371 73.7903
421.278 27.7718
422.057 3.68459
422.905 2.18087
423.810 6.07263
426.215 8.32136
427.133 6.76785
428.142 52.8322
429.045 12.1948
430.341 135.029
431.360 23.7363
432.845 5.16698
434.338 28.1976
435.965 9.17686
438.211 58.9614
440.099 42.9555
441.300 32.5709
442.710 39.9366
443.461 8.89039
444.249 8.61919
445.268 33.2153
448.054 382.362
449.214 142.953
450.255 36.5855
451.212 6.58814
452.337 41.3728
453.218 3.76074
454.133 3.67891
456.381 26.7298
457.158 56.1892
458.333 708.387
459.322 120.945
460.395 92.2994
464.287 4.76663
465.205 10.7023
466.150 14.3165
468.035 33.0127
469.124 57.9889
470.280 15.2675
471.302 5.17586
472.388 22.9583
474.294 45.1234
476.269 44.4771
477.457 193.439
478.360 118.41
478.983 51.7722
479.949 29.5528
481.539 13.6591
482.744 24.4878
483.434 21.5123
484.202 4.98418
485.200 224.504
487.071 1334.74
488.297 67.4595
489.387 35.2523
490.378 18.6464
491.072 15.45
493.383 17.0334
494.095 11.0716
495.271 16.7949
496.285 29.0261
497.111 8.11193
498.351 2.38625
499.177 3.6898
499.918 27.8576
501.017 20.3434
501.866 5.27629
502.815 85.851
504.002 57.4923
505.164 218.543
506.206 46.8132
507.594 11.5656
508.763 24.2532
511.369 3.24813
512.520 28.2814
513.318 35.505
514.442 29.9194
515.437 37.1078
516.170 11.6129
517.280 11.5731
518.430 19.5488
520.718 17.4738
521.368 4.87062
522.674 26.8677
523.620 63.8322
524.287 9.36069
525.544 4.6281
526.146 14.2232
527.745 8.15962
529.308 732.023
530.399 106.306
531.405 35.024
532.027 10.4387
533.287 43.5247
534.334 3.30356
535.502 20.7832
536.370 11.5599
537.305 26.4261
538.978 91.159
540.363 55.0391
541.313 89.858
542.208 18.0819
543.320 27.576
544.067 56.5726
545.434 4.34007
546.586 66.9826
548.110 22.8004
548.736 13.094
554.705 105.656
555.620 183.947
556.283 35.5944
558.130 360.149
559.267 150.534
560.683 62.4856
561.628 45.3751
562.446 17.5784
564.408 20.7043
567.921 32.031
569.184 36.1758
570.355 34.5508
571.260 56.7398
572.853 23.7272
574.162 19.6801
575.195 24.8737
576.336 270.809
577.489 607.865
578.343 168.716
579.402 35.7547
581.233 76.9563
582.133 11.6825
583.356 20.7836
584.392 44.5903
586.493 1204.03
587.409 143.412
588.214 32.1413
589.877 4.33
591.966 2.25614
593.202 35.6385
594.786 50.37
595.463 19.3941
596.148 8.68417
597.283 61.5488
598.257 73.42
599.109 87.4816
599.961 18.007
601.680 32.0281
603.095 44.8252
604.226 31.7059
605.360 39.4385
607.353 20.1612
608.484 28.9483
610.372 76.8331
611.408 13.9665
612.997 12.6615
614.503 2.92071
615.313 4.33719
616.367 1270.08
617.431 401.678
618.465 70.1136
619.668 26.1278
620.442 51.2189
621.339 54.2816
622.292 5.71151
624.130 15.1058
626.446 40.7512
627.988 94.2257
629.021 69.1374
630.153 46.4217
631.482 27.0515
632.335 8.70127
633.329 13.7113
634.115 53.4424
635.062 48.1486
636.758 142.659
637.957 45.4266
639.046 107.274
640.451 57.1864
642.045 133.75
642.834 16.6294
643.690 50.1568
644.703 45.5915
646.032 75.9767
647.246 24.8367
647.917 51.4286
649.127 15.223
650.381 14.576
651.020 10.988
651.996 65.3931
653.474 59.8072
654.257 16.3724
655.807 46.0556
656.563 15.6566
657.415 72.1297
658.315 32.0557
659.484 30.329
660.377 46.6429
662.030 74.1407
663.484 58.9903
664.521 16.2533
665.309 35.4308
666.295 160.657
667.099 91.1042
668.037 10.4999
669.015 56.0422
670.371 145.17
671.425 64.7791
672.435 51.1069
673.685 19.3307
674.494 50.7579
675.508 89.6685
676.457 77.4778
677.261 20.9346
678.338 222.438
679.590 194.753
680.424 13.9793
681.528 54.9712
682.455 15.6748
683.837 116.729
685.558 32.8435
687.350 317.476
688.359 350.512
689.192 88.9221
691.335 163.239
692.613 407.702
693.529 235.212
694.620 35.0872
695.330 23.293
696.454 86.298
697.726 156.416
698.596 61.6931
699.492 149.919
700.797 122.05
701.591 880.975
702.647 11.3142
715.527 53.0912
716.657 13.9709
717.279 15.8832
718.049 1.94222
720.526 10.3296
724.005 5.089
726.320 10.0171
727.141 28.9069
729.712 8.53683
732.594 10.9171
733.548 9.30158
734.406 38.2505
735.441 10.9025
738.367 15.1325
741.271 5.93066
743.470 8.3682
744.348 7.61151
745.426 21.0154
748.721 19.5448
749.703 10.2074
750.341 16.9877
752.398 13.5655
754.895 28.1368
757.738 12.0898
758.545 30.7702
759.617 16.6762
761.398 20.7409
762.106 5.75276
763.250 66.6617
764.758 26.624
767.035 22.2156
768.662 4.11936
769.286 2.59884
770.370 10.9843
771.172 22.3655
774.058 30.5987
774.963 15.9319
776.042 12.5957
777.577 11.0118
779.318 22.7578
780.836 42.8006
782.400 13.6974
784.226 36.5645
786.260 229.794
787.363 316.629
788.372 68.0005
789.478 18.1955
790.487 8.38507
791.401 15.2061
794.084 28.2374
799.238 30.8701
800.319 26.8502
801.510 8.15269
804.284 549.992
805.504 218.454
806.478 11.3008
807.654 3.90475
808.341 46.9301
810.256 20.2357
811.818 12.823
812.522 6.20628
815.166 42.3551
816.494 10.2289
817.683 13.4241
818.496 2.59881
819.478 36.319
820.350 11.6617
822.406 15.0106
823.414 11.364
825.124 12.6396
826.462 38.3746
827.504 48.7402
828.212 7.63904
830.729 13.3093
832.156 29.9412
832.890 5.4981
833.569 8.11469
834.248 20.168
835.275 69.669
836.178 5.10783
838.242 6.65327
839.355 8.82977
843.285 8.89625
844.501 971.86
845.389 514.413
846.432 154.324
847.398 27.2749
854.763 52.949
855.441 4.85841
856.103 12.6919
856.896 31.4064
858.010 18.7145
859.523 54.2961
860.378 12.4126
861.156 3.90479
863.620 5.10389
864.336 15.0817
865.792 5.26555
868.078 33.3311
869.062 24.9872
870.649 2.38308
871.473 5.34767
873.202 83.4348
874.408 164.315
875.123 19.4726
875.835 3.90289
878.026 94.1086
879.020 36.6086
883.540 18.9416
885.597 11.5197
887.316 82.9102
888.287 40.1459
890.492 55.0508
891.360 319.44
892.371 113.828
893.500 9.5258
894.551 3.02382
895.282 5.42331
896.614 29.702
898.444 31.0225
899.439 36.4223
901.415 21.5241
904.398 10.2633
905.335 2.81753
910.500 15.1822
911.543 30.8288
912.618 19.6584
914.058 5.9247
915.615 379.347
916.662 223.141
917.460 51.1041
919.089 74.493
920.222 25.6616
922.379 22.2721
923.437 32.798
924.641 7.80873
925.500 29.481
926.469 13.1061
927.284 20.0966
928.350 13.7716
929.232 23.1382
931.187 52.5396
933.320 9.88747
934.262 3.13072
935.368 7.29679
936.356 45.5306
937.041 14.2768
938.344 4.86274
938.984 3.68761
939.823 64.4372
940.686 52.8158
941.933 53.3702
944.310 175.952
945.279 98.9317
946.707 39.5944
947.779 20.6394
948.433 8.93359
950.618 58.2633
952.040 26.1958
954.139 64.0697
954.869 52.9842
955.629 23.1151
956.595 6.69536
957.719 20.0153
958.560 2.59004
959.450 23.589
960.548 25.9927
961.800 44.5875
962.474 128.536
963.443 136.624
964.419 58.5506
965.732 70.5687
966.577 29.6526
968.238 9.52243
971.764 146.741
972.530 1464.94
973.507 595.047
974.640 205.172
976.173 13.1914
977.656 4.12228
978.486 29.1006
981.500 7.6017
982.317 25.7619
983.721 5.70163
984.488 5.41649
989.347 9.8385
991.649 36.2271
994.749 8.68827
996.311 17.1105
997.856 34.4751
999.450 9.88446
1002.414 19.6645
1003.565 23.7199
1004.433 33.8426
1005.785 12.0454
1006.642 11.9731
1008.597 38.6363
1010.207 1.73141
1012.440 15.34
1016.903 10.161
1018.657 8.98555
1021.103 46.545
1023.759 26.8046
1025.112 50.244
1025.792 15.3479
1027.560 22.4312
1028.260 10.9317
1030.204 47.0699
1032.262 6.16023
1033.810 13.7705
1039.439 12.6914
1040.428 22.5073
1041.454 7.89934
1042.249 11.9641
1043.490 697.053
1044.469 480.318
1045.391 108.734
1046.559 5.30861
1047.592 15.9476
1048.876 12.0019
1049.786 4.77382
1052.625 2.38007
1053.668 7.81871
1057.447 229.685
1058.408 163.21
1059.645 59.2662
1060.448 20.0883
1061.334 16.3004
1067.801 31.3368
1072.396 46.6609
1075.386 410.357
1076.526 196.947
1077.422 63.226
1078.613 100.899
1079.291 8.28205
1080.640 35.1544
1087.468 5.16111
1088.451 6.16339
1089.802 25.4185
1091.545 24.475
1097.840 10.7482
1098.961 5.20112
1099.674 22.2499
1102.100 5.29442
1106.583 8.69757
1109.449 8.77727
1111.972 18.1023
1118.656 15.1579
1119.540 10.9345
1125.590 10.3981
1126.282 6.81178
1136.482 7.68885
1140.364 9.18307
1141.747 22.6196
1143.694 7.0358
1144.636 19.1336
1147.676 7.0249
1152.397 6.29952
1153.392 39.6348
1154.508 33.0479
1155.361 18.1143
1155.979 9.36231
1156.709 10.0669
1159.569 3.91012
1160.700 69.6908
1161.841 18.2786
1166.805 13.2097
1167.630 9.00624
1170.356 141.249
1171.450 300.122
1172.494 104.988
1173.705 52.9206
1175.632 22.4549
1188.488 750.602
1189.465 363.845
1190.470 211.219
1192.287 46.0684
1193.664 38.9626
1194.565 33.3849
1196.952 3.97911
1199.225 2.7389
1202.491 7.38195
1203.415 5.86236
1204.820 9.11569
1207.770 14.4173
1210.904 20.1978
1213.182 6.8108
1216.704 6.57006
1224.032 27.3072
1227.537 6.07445
1228.309 5.77467
1237.371 27.2314
1245.752 122.559
1246.876 46.3379
1247.556 14.4974
1249.593 15.414
1254.967 5.62717
1265.565 15.3043
1270.535 36.4128
1271.899 2.66312
1275.330 21.5072
1282.610 18.0775
1284.757 5.28558
1285.447 18.9695
1290.709 8.17673
1292.417 14.6225
1354.821 6.05943
1415.035 15.9399
END IONS

BEGIN IONS
TITLE=Spectrum3196 scans: 6534,
PEPMASS=727.40625 76793.82031
CHARGE=2+
RTINSECONDS=4269
SCANS=6534
210.993 7.41037
215.194 8.77445
216.156 4.88845
225.243 7.18996
237.046 5.96994
239.123 40.5182
240.236 10.4453
245.279 16.8075
254.132 4.23522
268.118 4.45901
272.488 24.1257
275.079 27.1563
275.993 8.27189
280.423 2.23451
281.347 9.9384
284.055 1.78786
287.605 6.60248
297.912 25.291
300.366 5.07759
301.103 2.01669
302.206 7.83044
305.180 18.627
308.123 14.4223
309.155 2.50624
310.814 5.75624
315.390 22.8895
322.174 93.0571
324.343 2.37022
325.846 7.96007
339.074 3.37389
340.111 26.0517
341.221 3.53335
343.251 19.5052
345.218 20.4697
349.138 10.9856
351.314 5.26955
354.217 21.6219
355.198 13.6336
357.276 18.4522
364.510 5.16388
366.875 26.4541
368.995 2.47611
382.069 11.4005
382.957 5.07883
383.868 2.44582
385.250 48.4109
386.593 6.89918
389.132 7.01411
392.269 22.3973
394.959 5.72842
396.600 31.2253
397.320 2.42505
398.223 14.0406
401.105 98.7893
402.028 73.4889
402.700 6.7478
410.948 2.66601
414.345 42.278
416.474 9.39431
418.119 10.0741
420.974 10.9572
424.412 31.0967
428.609 14.4916
431.962 10.9347
439.400 15.2907
442.375 51.3362
443.050 3.57182
444.169 15.1229
450.514 6.43256
453.310 5.05406
454.700 6.27587
456.357 13.563
461.376 6.16689
468.351 63.5907
469.138 1.78854
470.423 4.06824
477.148 12.0256
480.465 11.6162
482.533 18.4292
484.119 8.11885
485.331 337.927
486.079 80.3047
486.972 35.5839
487.678 1.47465
492.052 35.5799
498.348 1.79988
499.242 5.15044
500.173 6.37188
503.717 48.5321
504.346 44.9101
508.264 21.1797
509.429 9.49759
510.298 27.9891
513.185 4.00959
514.393 7.89612
517.944 10.2906
519.037 21.0663
520.418 11.8101
522.546 2.90088
525.231 8.12889
527.163 34.0204
528.234 63.4807
531.132 4.84586
533.334 3.17186
537.279 168.959
538.393 62.3937
539.384 11.1401
543.297 5.96646
555.247 313.897
556.336 47.5922
557.153 79.8362
560.745 11.521
565.413 6.69179
567.463 7.02143
568.429 21.134
569.440 7.89821
571.319 7.03109
574.286 11.157
575.464 28.065
576.897 69.7008
578.222 8.11169
580.444 15.355
581.891 6.4149
586.165 50.3344
587.202 40.6964
589.647 30.2717
590.869 13.1212
591.777 9.41722
594.371 2.22972
595.929 4.92904
597.683 9.52655
599.444 12.4607
603.207 2.44526
604.297 17.0567
608.568 7.86146
609.823 49.4689
611.634 38.358
614.332 579.887
615.423 265.68
616.229 57.7014
620.487 50.0306
622.414 2.27738
623.408 15.7674
627.412 16.4153
628.319 7.90463
633.362 109.696
634.193 165.216
635.358 19.202
638.281 189.383
639.360 69.1985
640.266 44.1933
640.888 6.46909
642.518 270.398
643.580 26.8709
644.385 3.549
646.092 21.3203
650.487 8.33536
652.946 19.0841
655.778 39.2443
656.600 42.3117
657.304 52.7371
659.504 18.6771
662.407 3.9899
663.495 4.03519
664.507 10.5459
665.706 46.4762
667.355 13.4
668.244 29.1209
669.073 17.2409
670.181 44.9995
671.062 35.7014
673.213 2.44569
675.380 8.11553
676.046 21.4793
678.457 8.78703
679.318 24.4008
680.148 151.376
681.034 25.8
681.913 78.9186
683.203 29.8106
685.359 867.043
686.381 315.504
687.419 22.0257
689.288 80.6516
690.688 11.6763
691.351 53.2573
692.497 3.77257
693.355 8.60805
696.294 37.5207
697.514 42.7511
698.396 7.7496
699.103 9.48525
700.090 11.6777
703.486 2.88443
705.550 8.75496
706.417 15.7773
707.762 119.965
708.737 190.721
709.365 768.785
710.302 252.679
711.228 13.4614
712.270 29.6149
713.090 36.3405
715.507 41.9706
717.303 70.2252
718.366 344.123
719.077 46.5846
728.117 7.89988
733.694 13.1839
741.293 49.4321
751.289 463.807
752.271 96.8103
753.386 8.80576
754.082 28.3144
759.772 10.1288
760.550 29.1809
769.448 186.606
770.429 72.7335
771.453 19.6941
774.321 3.1019
777.408 44.5287
779.067 12.6999
781.146 4.45831
783.113 101.131
785.998 24.5855
788.588 9.75411
794.866 33.102
798.388 387.106
799.459 178.265
800.445 13.5632
801.516 16.1136
803.297 1.91888
804.709 23.4995
805.443 3.92053
806.817 5.27321
813.095 7.06934
816.566 14.4311
818.508 12.6124
822.389 151.723
823.438 128.453
835.138 15.9245
837.412 9.26451
839.593 31.692
840.533 196.985
841.403 95.9082
842.570 9.83586
852.059 3.15935
856.414 4.02803
858.801 8.98581
866.559 14.3119
868.688 4.03993
870.786 8.76503
871.813 5.2853
879.519 42.6057
881.484 6.73139
882.404 15.3092
883.189 7.74943
889.565 5.27316
896.326 12.8107
899.478 755.327
900.489 327.446
901.483 59.3701
906.372 3.96376
916.806 21.441
923.232 55.6559
932.701 34.2255
933.525 30.5376
934.406 35.2445
943.863 18.6113
951.145 54.8386
951.978 69.6137
952.771 4.14031
959.111 13.1186
969.437 104.457
970.383 66.3524
971.475 14.2141
973.770 2.23415
978.558 3.78304
982.357 15.617
984.436 9.27608
987.928 6.00553
989.572 5.05746
991.016 24.7469
994.847 9.28937
995.693 10.7558
1002.443 17.8944
1005.918 8.33574
1006.536 13.1553
1007.410 7.4488
1012.509 208.961
1013.459 61.5205
1014.656 39.6915
1016.994 13.1214
1020.522 10.5775
1028.632 5.5162
1032.776 7.49437
1040.393 9.28102
1044.232 11.5679
1047.453 19.227
1051.524 26.16
1052.519 10.5004
1063.033 5.92319
1065.166 14.4664
1069.533 324.122
1070.455 236.112
1071.580 67.5267
1073.334 7.68758
1084.599 5.98004
1090.050 18.0068
1097.770 7.95879
1104.849 38.071
1110.182 9.0324
1114.109 73.0439
1114.922 23.2404
1115.659 32.2434
1119.727 17.0779
1126.894 8.17895
1127.576 10.9994
1132.271 96.5699
1133.250 76.1447
1134.469 36.7129
1140.495 8.53683
1150.300 21.3437
1152.640 44.7504
1153.686 68.7863
1154.756 18.344
1168.880 11.7922
1170.540 183.686
1171.573 64.4914
1172.668 25.5954
1192.702 3.53484
1236.410 6.7567
1240.823 13.0689
1243.665 25.6572
1251.400 25.0808
1261.056 52.1425
1262.073 51.1125
1267.645 24.2107
1271.518 13.3784
1276.245 3.96313
1279.642 26.287
1280.544 67.9766
1281.358 7.93836
1282.074 2.87273
1283.489 29.152
1284.704 15.4958
1285.735 10.7576
1286.615 4.84205
1288.808 11.5805
1305.910 11.4046
1348.254 10.9469
END IONS

BEGIN IONS
TITLE=Spectrum2559 scans: 5242,
PEPMASS=1184.48315 118881.42969
CHARGE=2+
RTINSECONDS=3507
SCANS=5242
343.303 7.66222
345.867 7.05005
359.467 10.2872
363.106 10.3071
369.157 14.6762
377.110 43.9084
377.760 1.49992
378.384 2.2372
379.282 5.52666
397.150 16.5299
424.208 3.34024
431.890 1.80364
433.941 5.49729
441.578 2.31913
450.195 22.5317
459.924 7.07069
462.085 7.37573
470.594 3.32631
471.971 19.6458
487.189 21.2473
490.335 11.4306
498.603 7.88695
504.403 6.41747
505.260 154.966
506.200 15.0204
507.279 15.1438
512.323 13.4573
512.936 7.01852
515.081 5.35764
521.302 3.1272
523.010 14.3792
526.927 9.73468
533.033 4.22373
539.246 8.04801
551.361 3.54009
553.040 6.17045
556.416 2.72053
558.724 10.0979
559.518 9.29132
568.767 23.6621
569.375 11.1895
585.124 8.56778
596.531 2.23855
604.243 37.1846
606.322 29.0746
613.471 11.4241
622.448 13.8829
624.483 3.97383
638.358 15.4233
640.606 17.2546
642.330 12.7058
644.233 8.77569
650.168 28.0493
651.161 15.7754
660.421 6.89008
662.298 2.68613
668.316 164.946
669.289 80.2066
670.226 21.2077
671.394 13.7855
673.636 9.00779
676.459 9.42768
681.180 6.43795
684.549 5.73452
696.913 10.7287
700.796 18.7671
715.755 13.5801
724.127 17.4363
730.038 2.05347
732.553 35.6198
733.280 2.97276
734.641 26.6681
735.307 8.3207
747.330 5.15311
751.293 61.0722
752.289 8.11035
752.963 2.4791
763.344 11.3217
764.265 42.3934
774.183 13.0131
776.278 17.2588
781.310 100.578
782.496 8.86641
783.441 2.67375
784.426 34.3512
785.343 4.93189
786.210 6.39368
790.248 14.3531
796.092 9.35673
802.054 8.15376
804.125 26.7748
814.067 4.41129
820.327 11.8773
823.329 12.5524
835.749 9.46917
837.897 6.79921
844.004 13.1232
854.543 3.75201
857.894 1.14901
859.353 4.92407
861.218 1.58546
863.092 14.9271
864.030 9.65011
866.495 5.75641
874.521 15.8025
879.138 2.69424
880.599 9.52898
883.398 5.9313
884.478 16.7889
885.228 6.42998
889.284 51.3228
891.605 4.41405
893.297 6.38527
895.479 258.177
896.378 83.28
897.509 59.5412
898.875 8.78556
899.807 25.3798
901.848 11.2579
903.164 18.1846
905.146 5.30807
911.290 40.1625
913.339 3.13979
921.326 8.24128
925.250 20.1994
928.349 8.44122
935.545 12.3085
943.013 9.22374
946.455 18.2103
952.764 24.4121
956.213 46.2568
957.322 37.8279
958.391 7.29147
959.832 13.5022
964.182 47.8872
965.338 18.3181
966.315 49.9227
967.584 18.8295
971.479 15.2995
973.614 7.06399
974.603 18.2744
979.709 11.8096
980.643 12.457
982.169 134.137
983.390 20.2234
990.165 7.48208
991.266 15.5528
993.609 7.01941
994.604 16.652
999.463 9.00227
1010.541 245.77
1011.568 86.7163
1012.176 1.978
1012.811 27.6631
1013.576 42.4707
1018.456 17.0002
1019.616 8.09841
1022.165 29.0954
1024.474 6.81811
1028.338 2.02207
1033.748 4.23488
1036.326 22.2735
1044.560 11.465
1045.260 28.1523
1046.346 24.7846
1047.486 13.2484
1048.287 14.3966
1050.142 28.3669
1053.988 104.693
1055.057 29.3931
1056.451 5.70991
1063.264 119.865
1064.373 32.7176
1065.204 21.5339
1066.517 18.7716
1068.720 10.4244
1070.743 11.8754
1081.212 379.621
1082.269 126.219
1083.147 92.3246
1084.193 22.0691
1087.401 31.7405
1093.887 20.0204
1095.657 35.1521
1098.205 5.92139
1103.429 6.43745
1106.627 4.86306
1113.712 3.09868
1114.329 7.91556
1117.141 7.09098
1118.219 7.46541
1121.518 2.6752
1125.771 11.9141
1130.531 14.7149
1131.276 10.1287
1132.508 33.1436
1139.377 5.73467
1140.892 16.4562
1144.214 8.32822
1147.305 7.72636
1148.315 13.8332
